File: data/refractive_index/PS,[49].csv
"Wavelength (nm)","Refractive index"
436.8,1.617
486.1,1.606
587.6,1.592
632.8,1.587
703,1.582
833,1.577
879,1.576
1052,1.572