File: data/refractive_index/original/sultanova2009,PAA.csv
"Wavelength (nm)","Refractive index"
436.8,1.506
486.1,1.499
587.6,1.494
632.8,1.492
703,1.491
833,1.489
879,1.488
1052,1.486